2theta       chi         X           Y           I        peak_Itot peak_fwaxmaj peak_fwaxmin peak_inclination Xdev Ydev peak_bkg Ipixmax Xfiterr Yfiterr
54.73819   -14.76156   1294.65000   1880.57000   44329.41   45700.880   1.280   1.270   147.977   -0.350   -0.430   1371.480   42637.000   0.010   0.009
51.44830   14.13933   760.75000   1970.56000   38191.16   39562.520   1.540   1.260   225.588   -0.250   0.560   1371.360   38595.000   0.010   0.009
81.04746   0.89772   1009.39000   1285.60000   37352.91   39181.870   0.950   0.970   3.463   0.390   -0.400   1828.960   34074.000   0.007   0.007
72.81405   25.30108   534.04000   1473.89000   24765.80   26238.480   1.160   1.120   190.891   0.040   -0.110   1472.680   24682.000   0.007   0.007
78.35799   -24.48523   1498.01000   1360.08000   23920.53   25462.620   0.990   1.160   23.575   0.010   0.080   1542.090   23934.000   0.005   0.006
58.25344   -0.08190   1024.14000   1762.92000   22926.39   24367.970   1.220   1.190   345.317   0.140   -0.080   1441.590   22990.000   0.008   0.008
77.44430   15.57702   735.78000   1360.27000   17480.49   19119.180   1.100   1.030   180.720   -0.220   0.270   1638.690   18773.000   0.006   0.006
65.36062   -9.27723   1193.00000   1604.93000   16314.27   17801.040   1.130   1.040   126.086   -0.000   -0.070   1486.770   17116.000   0.004   0.004
59.66555   42.47357   74.34000   1936.93000   15672.17   16901.040   1.290   2.330   184.307   0.340   0.930   1228.880   16816.000   0.052   0.052
56.54861   -24.73475   1498.78000   1877.97000   15467.81   16708.170   1.280   1.410   196.418   -0.220   -0.030   1240.350   16644.000   0.012   0.012
80.82399   -14.12137   1286.88000   1296.70000   15310.07   16993.160   1.050   1.010   241.099   -0.120   -0.300   1683.090   16360.000   0.004   0.004
63.21059   9.54801   849.03000   1651.60000   15203.34   16658.800   1.090   1.170   89.514   0.030   0.600   1455.470   15193.000   0.007   0.007
81.20092   -10.86140   1224.94000   1287.02000   15049.22   16761.030   1.040   0.960   115.758   -0.060   0.020   1711.810   16602.000   0.003   0.004
78.54423   12.45298   796.05000   1336.10000   14719.31   16397.790   1.010   1.070   166.600   0.050   0.100   1678.480   16461.000   0.004   0.004
63.22771   0.10957   1021.42000   1644.97000   14660.60   16142.000   1.140   1.140   102.034   -0.580   -0.030   1481.400   14912.000   0.007   0.007
101.27533   23.11609   583.77000   893.61000   13178.90   14769.080   1.090   1.090   97.022   -0.230   0.610   1590.190   13626.000   0.006   0.006
75.12745   20.93799   627.75000   1414.66000   12802.14   14337.810   1.120   1.090   45.599   -0.250   -0.340   1535.680   12905.000   0.005   0.005
119.82641   3.78193   961.51000   522.23000   12280.52   13816.110   1.190   1.140   296.802   -0.490   0.230   1535.580   13054.000   0.005   0.005
106.00335   -19.12735   1389.89000   808.17000   12224.89   13832.130   1.060   1.100   9.824   -0.110   0.170   1607.240   13455.000   0.004   0.004
97.20760   -10.25164   1215.70000   989.54000   12054.11   13840.790   1.040   1.040   154.550   -0.300   0.540   1786.680   12634.000   0.007   0.006
94.49740   13.57660   776.05000   1036.32000   11723.94   13485.780   1.020   1.110   186.811   0.050   0.320   1761.840   13198.000   0.005   0.006
49.51804   -0.38966   1028.17000   2004.92000   11679.30   13009.520   1.700   1.380   195.499   -0.830   0.920   1330.230   12709.000   0.020   0.018
68.62997   -43.27173   1998.71000   1685.09000   11651.38   12869.510   1.790   1.410   170.302   -0.290   0.090   1218.130   13242.000   0.020   0.020
62.34590   -20.11166   1402.45000   1702.62000   11062.41   12405.970   1.120   1.180   57.428   -0.550   -0.380   1343.560   11463.000   0.006   0.006
75.49494   -31.62425   1663.70000   1441.37000   10516.75   11890.490   1.060   1.270   219.992   -0.300   0.370   1373.750   10856.000   0.005   0.005
103.81789   2.29792   986.53000   865.52000   9225.18   10988.630   1.060   1.120   169.187   -0.470   0.520   1763.440   9649.000   0.005   0.006
79.71239   -19.78824   1399.03000   1324.72000   8895.81   10485.780   1.110   0.970   290.708   0.030   -0.280   1589.970   9893.000   0.004   0.004
90.99461   -31.57475   1665.83000   1104.90000   8760.56   10226.840   1.220   1.120   233.418   -0.170   -0.100   1466.280   9819.000   0.008   0.007
83.95463   33.08720   349.02000   1249.11000   8688.68   10109.360   1.110   1.270   152.003   0.020   0.110   1420.680   9824.000   0.005   0.006
79.15454   10.41420   834.58000   1323.13000   8578.38   10267.160   0.980   0.930   249.909   -0.420   0.130   1688.780   9662.000   0.005   0.005
81.34776   -8.75128   1185.57000   1282.98000   8450.57   10174.610   0.970   1.000   253.293   -0.430   -0.020   1724.040   9773.000   0.004   0.004
68.56792   31.87068   379.13000   1597.20000   8313.57   9617.330   1.150   1.300   2.642   0.130   0.200   1303.770   9467.000   0.010   0.010
57.84564   19.87430   648.05000   1811.82000   8256.33   9531.620   1.220   1.310   280.979   0.050   -0.180   1275.290   9310.000   0.009   0.009
71.66762   -38.69403   1854.48000   1567.51000   8018.29   9263.260   1.280   1.420   40.827   -0.520   -0.490   1244.970   8935.000   0.012   0.009
80.41304   -16.52821   1333.71000   1306.97000   7907.16   9539.850   1.010   1.030   135.348   -0.290   -0.030   1632.690   9430.000   0.005   0.005
107.48427   2.58108   981.81000   793.34000   7281.72   8993.860   1.090   1.060   221.666   -0.190   0.340   1712.140   8800.000   0.005   0.005
63.47436   38.31883   204.12000   1775.77000   7054.62   8260.420   1.450   1.640   12.190   0.120   0.770   1205.800   8987.000   0.027   0.026
76.52511   17.85414   690.70000   1381.27000   6960.80   8538.760   0.990   1.050   22.024   -0.300   0.270   1577.970   8363.000   0.005   0.005
95.86501   -24.22352   1495.47000   1007.83000   6665.34   8238.650   1.050   1.120   175.913   -0.530   -0.170   1573.300   7534.000   0.007   0.008
90.20804   26.68035   504.30000   1114.55000   6629.76   8174.510   1.120   1.100   72.788   0.300   0.550   1544.750   7119.000   0.006   0.006
62.33413   -26.66603   1543.11000   1733.07000   6615.21   7892.050   1.190   1.110   164.580   0.110   0.070   1276.840   7480.000   0.008   0.008
106.79298   35.55641   284.39000   730.87000   6176.10   7533.430   1.330   1.200   346.901   -0.610   -0.130   1357.330   6918.000   0.012   0.012
66.42686   0.23739   1019.55000   1574.46000   5892.85   7408.560   1.030   1.030   191.839   -0.450   0.460   1515.710   6856.000   0.007   0.007
98.85803   1.93780   992.51000   959.58000   5629.87   7429.890   1.080   1.060   353.765   -0.490   -0.420   1800.020   6756.000   0.008   0.008
131.26959   5.38264   934.02000   200.17000   5484.96   6819.500   1.320   1.440   139.293   0.020   0.170   1334.540   6461.000   0.011   0.011
89.48787   22.02026   606.21000   1129.44000   5479.77   7097.210   1.060   1.060   33.299   0.210   0.440   1617.440   6593.000   0.006   0.006
112.05204   18.63049   678.12000   674.29000   5320.70   6857.890   1.140   1.070   55.811   0.120   0.290   1537.190   6568.000   0.006   0.006
123.12590   20.26734   645.77000   393.44000   5245.69   6622.510   1.150   1.320   190.963   -0.230   0.440   1376.830   6367.000   0.009   0.009
94.15752   -19.46935   1394.88000   1044.19000   5237.54   6889.520   1.050   1.040   215.676   -0.120   0.190   1651.980   6794.000   0.006   0.006
107.16795   14.72490   755.05000   787.62000   5204.10   6831.780   1.050   1.060   353.742   0.050   -0.380   1627.680   6250.000   0.005   0.005
109.92892   -9.60642   1205.45000   740.04000   4947.04   6586.860   1.050   1.050   3.444   -0.550   0.040   1639.820   6286.000   0.006   0.006
118.79486   25.42124   534.77000   483.95000   4784.64   6164.970   1.150   1.290   38.960   -0.230   -0.050   1380.320   5769.000   0.007   0.007
114.06070   -31.48053   1668.72000   580.07000   4745.93   6099.530   1.280   1.240   152.624   -0.280   0.070   1353.600   5775.000   0.009   0.010
77.63642   -26.51348   1542.95000   1379.61000   4626.24   6090.410   1.110   1.110   294.386   -0.050   -0.390   1464.170   5569.000   0.007   0.007
66.03848   -16.86052   1337.85000   1605.47000   4598.11   6020.560   1.120   1.020   342.509   -0.150   0.470   1422.460   5612.000   0.007   0.007
115.60683   -12.71796   1265.24000   611.25000   4550.92   6088.970   1.110   1.090   15.917   0.240   0.250   1538.050   5692.000   0.005   0.006
126.78491   -11.93735   1252.52000   325.30000   4412.26   5782.190   1.180   1.310   36.620   -0.480   0.300   1369.930   5582.000   0.010   0.011
90.56803   33.69534   333.53000   1105.31000   4412.02   5837.910   1.320   1.140   218.051   -0.470   0.310   1425.890   5693.000   0.009   0.008
95.65185   1.75396   995.49000   1018.87000   3963.21   5765.700   1.120   1.080   141.524   0.490   -0.130   1802.490   5581.000   0.014   0.014
123.71402   -18.38454   1378.30000   390.13000   3940.69   5317.380   1.240   1.170   308.397   -0.700   0.130   1376.690   4915.000   0.010   0.010
71.69265   27.18772   491.47000   1504.53000   3653.50   5045.710   1.240   1.030   358.246   -0.530   0.530   1392.210   4774.000   0.012   0.012
81.39976   -7.27837   1158.35000   1281.26000   3531.95   5257.200   0.990   0.980   198.595   -0.650   0.260   1725.260   4839.000   0.007   0.008
91.00052   9.72263   848.67000   1102.52000   3361.87   5128.130   1.030   1.010   144.453   -0.330   0.520   1766.260   4826.000   0.008   0.008
112.66673   13.15909   785.83000   673.50000   3335.82   4913.030   1.060   1.110   24.017   -0.170   0.500   1577.210   4622.000   0.006   0.006
114.96291   -7.04004   1158.52000   633.86000   3285.87   4860.880   1.080   1.080   278.269   -0.480   -0.140   1575.010   4668.000   0.007   0.007
92.89080   -6.78217   1150.70000   1069.96000   3172.44   4965.720   1.050   1.070   220.588   -0.300   -0.040   1793.280   4933.000   0.007   0.007
62.21069   16.98081   706.70000   1691.02000   3163.58   4519.250   1.000   1.150   139.305   -0.300   0.020   1355.660   4474.000   0.008   0.008
108.60604   42.85592   62.48000   637.22000   3105.79   4344.150   1.300   1.560   4.867   -0.520   0.220   1238.350   4110.000   0.013   0.013
103.68954   -31.53578   1667.62000   828.47000   3052.76   4475.880   1.140   1.170   88.685   -0.380   -0.530   1423.120   4179.000   0.010   0.009
123.04569   4.16709   954.94000   440.81000   3013.00   4471.970   1.160   1.230   252.772   -0.060   -0.190   1458.960   4236.000   0.007   0.008
105.79807   -7.63592   1168.18000   825.66000   3003.46   4701.780   1.040   1.050   346.816   0.180   -0.340   1698.320   4364.000   0.007   0.007
92.69998   -16.18567   1328.85000   1072.90000   2960.65   4655.570   1.070   1.010   319.137   -0.150   -0.100   1694.920   4622.000   0.007   0.007
79.53446   8.98836   861.22000   1315.23000   2931.54   4626.400   1.070   1.040   111.333   0.220   0.230   1694.860   4441.000   0.007   0.007
123.03946   31.02291   403.60000   325.48000   2931.07   4201.910   1.500   1.230   349.820   -0.400   0.480   1270.840   4088.000   0.013   0.013
114.57660   29.52822   439.43000   570.18000   2915.99   4288.730   1.240   1.170   293.023   -0.570   0.180   1372.740   4000.000   0.007   0.008
117.24476   -39.18897   1882.00000   433.98000   2894.64   4124.420   1.560   1.370   316.304   -0.000   -0.020   1229.780   3977.000   0.019   0.018
103.54189   12.20893   803.04000   864.08000   2807.22   4497.200   1.070   1.050   302.224   0.040   0.080   1689.980   4437.000   0.006   0.006
129.06985   -23.32785   1483.23000   200.89000   2745.88   4011.850   1.220   1.560   298.460   -0.770   0.890   1265.970   3816.000   0.014   0.014
75.91528   43.71868   32.41000   1475.96000   2735.93   3947.300   1.190   1.740   170.069   -0.590   0.960   1211.380   3741.000   0.017   0.018
88.74657   18.73676   673.97000   1143.86000   2722.95   4381.770   1.030   1.070   303.503   -0.030   -0.140   1658.820   4398.000   0.007   0.007
96.54772   34.30546   317.71000   973.02000   2676.00   4082.230   1.220   1.220   350.595   -0.290   0.020   1406.230   3923.000   0.008   0.009
97.65990   -31.55592   1666.79000   961.85000   2656.83   4107.050   1.190   1.170   104.453   -0.210   -0.150   1450.230   4030.000   0.007   0.008
90.20763   -22.52355   1457.84000   1120.70000   2643.34   4237.800   1.080   1.020   315.611   -0.160   -0.300   1594.450   4122.000   0.008   0.008
97.03597   41.32020   112.92000   945.29000   2523.61   3818.050   1.260   1.450   358.838   -0.080   0.290   1294.440   3748.000   0.009   0.010
56.47193   26.18634   512.92000   1883.07000   2507.86   3703.270   1.170   1.170   18.157   -0.080   0.070   1195.410   3720.000   0.008   0.009
120.47257   -23.64543   1487.85000   454.58000   2484.34   3859.330   1.120   1.290   328.696   -0.150   -0.420   1374.990   3641.000   0.009   0.009
105.51090   -39.01355   1873.10000   755.25000   2461.46   3762.540   1.200   1.390   342.623   -0.900   0.250   1301.080   3518.000   0.010   0.012
98.35316   -36.83934   1807.58000   936.03000   2445.36   3805.900   1.190   1.330   177.198   -0.420   0.030   1360.550   3731.000   0.008   0.009
86.66629   -36.76377   1802.56000   1202.51000   2343.58   3692.690   1.210   1.190   228.397   -0.440   -0.490   1349.110   3491.000   0.010   0.008
117.04930   3.47663   966.70000   588.21000   2317.07   3870.980   1.100   1.100   246.328   -0.300   0.210   1553.910   3761.000   0.007   0.007
115.71198   -18.77216   1384.46000   593.95000   2314.42   3797.250   1.060   1.140   135.137   -0.540   -0.050   1482.840   3560.000   0.009   0.009
110.89739   24.25865   559.77000   682.63000   2212.51   3688.560   1.140   1.090   304.847   -0.230   0.630   1476.050   3503.000   0.009   0.010
111.02693   -26.07087   1539.45000   679.23000   2176.55   3630.890   1.120   1.130   7.342   -0.550   0.230   1454.330   3499.000   0.009   0.010
93.41752   1.61195   997.82000   1059.75000   2082.78   3875.320   1.100   1.070   65.612   -0.180   -0.250   1792.540   3917.000   0.017   0.017
78.71360   37.56317   226.74000   1378.38000   2052.09   3363.520   1.460   1.110   270.722   -0.260   0.380   1311.430   3347.000   0.013   0.012
118.76158   37.47856   230.82000   394.97000   1990.52   3229.680   1.340   1.460   357.721   -0.180   0.970   1239.160   3087.000   0.017   0.018
104.82273   30.22022   422.04000   799.27000   1961.83   3401.750   1.090   1.200   206.107   0.040   0.270   1439.920   3325.000   0.008   0.009
78.89824   -22.72381   1460.12000   1345.68000   1940.88   3472.170   1.060   0.990   315.981   0.120   -0.320   1531.290   3335.000   0.008   0.008
90.29717   38.63155   195.88000   1109.93000   1881.60   3222.880   1.370   1.340   177.331   -0.120   -0.070   1341.280   3161.000   0.012   0.013
84.95422   24.49006   552.79000   1219.89000   1815.42   3368.680   1.030   1.090   141.995   -0.210   -0.110   1553.260   3316.000   0.010   0.010
101.74881   -26.23064   1541.16000   883.92000   1793.84   3311.690   1.070   1.140   7.784   0.160   -0.080   1517.850   3181.000   0.009   0.009
126.21972   -31.40574   1670.35000   229.32000   1759.80   2988.580   1.600   1.310   11.481   -0.650   0.320   1228.770   3023.000   0.012   0.014
125.27721   17.18975   708.52000   346.73000   1741.06   3104.990   1.170   1.320   243.548   -0.480   -0.270   1363.920   2956.000   0.009   0.008
131.56629   21.97574   611.05000   119.50000   1638.95   2881.740   1.480   1.390   10.249   0.050   0.500   1242.800   2809.000   0.014   0.015
128.17712   -8.19426   1182.34000   293.19000   1620.75   2979.960   1.210   1.300   265.518   -0.660   0.190   1359.200   2884.000   0.011   0.010
131.80163   18.48928   683.29000   134.10000   1488.70   2748.800   1.220   1.570   11.549   -0.710   0.100   1260.100   2599.000   0.023   0.024
95.63891   29.18725   446.34000   1000.75000   1487.86   2973.720   1.130   1.150   343.977   -0.660   -0.250   1485.860   2832.000   0.015   0.016
87.38839   -31.59270   1665.51000   1181.74000   1322.36   2758.460   1.070   1.140   204.296   -0.490   -0.260   1436.100   2691.000   0.010   0.011
112.51261   3.02134   974.41000   689.15000   1259.34   2888.860   1.080   1.110   347.802   -0.590   0.150   1629.520   2801.000   0.013   0.015
135.33579   -11.09630   1238.65000   44.75000   1231.39   2471.640   1.310   1.730   268.090   -0.350   0.750   1240.250   2416.000   0.016   0.018
102.67199   -6.28777   1142.88000   887.30000   1187.30   2917.890   1.010   1.060   17.699   -0.120   0.300   1730.590   2874.000   0.012   0.012
100.71355   -13.46074   1277.09000   921.15000   1177.50   2871.050   1.040   1.030   224.782   0.090   0.150   1693.550   2856.000   0.014   0.014
56.79806   -36.64771   1791.00000   1970.73000   1164.84   2277.790   1.460   1.340   152.286   0.000   -0.270   1112.950   2291.000   0.013   0.013
100.76886   10.45858   835.84000   919.55000   1158.69   2874.100   1.050   1.070   7.499   -0.160   0.550   1715.410   2797.000   0.015   0.015
101.03054   2.08176   990.14000   918.80000   1134.37   2888.000   1.100   1.030   182.169   0.140   -0.200   1753.630   2888.000   0.014   0.013
119.27605   -15.08387   1311.68000   518.09000   1100.83   2558.880   1.120   1.170   7.130   -0.320   0.090   1458.060   2508.000   0.015   0.015
134.76862   -7.42962   1169.67000   76.64000   1095.62   2352.590   1.460   1.550   12.921   -0.330   0.640   1256.960   2310.000   0.019   0.018
73.72366   23.65338   570.15000   1449.94000   1048.94   2508.690   1.020   1.130   91.600   0.150   -0.060   1459.760   2452.000   0.015   0.014
111.84997   -15.46928   1317.85000   690.26000   1046.09   2609.220   1.100   1.100   205.306   -0.150   0.260   1563.130   2521.000   0.015   0.015
107.79200   20.55227   638.37000   762.57000   1026.60   2578.290   1.060   1.070   45.387   0.370   0.570   1551.690   2427.000   0.015   0.015
68.65275   0.31225   1018.49000   1527.39000   1020.34   2564.240   0.970   0.960   163.161   -0.510   0.390   1543.900   2417.000   0.020   0.019
122.54784   -31.43306   1669.88000   344.92000   995.61   2265.540   1.250   1.540   126.171   -0.120   -0.080   1269.940   2161.000   0.014   0.014
91.48211   -13.79970   1282.25000   1095.97000   995.21   2712.140   1.070   1.050   323.191   0.250   -0.030   1716.930   2714.000   0.016   0.016
115.15480   36.83238   249.16000   505.03000   944.48   2217.590   1.450   1.220   65.283   0.160   1.030   1273.110   2113.000   0.024   0.023
122.57268   -6.41676   1148.29000   451.86000   929.17   2381.650   1.230   1.200   179.643   -0.710   -0.140   1452.480   2246.000   0.017   0.016
120.22710   14.14013   767.79000   493.49000   920.24   2378.480   1.110   1.200   132.592   -0.210   0.490   1458.240   2346.000   0.015   0.017
80.37644   32.77916   356.76000   1327.26000   883.35   2272.980   1.120   1.170   200.572   -0.240   0.260   1389.630   2264.000   0.014   0.014
108.17502   -36.91591   1812.32000   699.05000   882.64   2197.620   1.290   1.320   154.261   -0.680   0.050   1314.980   2180.000   0.018   0.017
97.27555   17.05745   708.34000   981.11000   882.15   2552.430   1.020   1.100   253.826   0.340   0.110   1670.280   2537.000   0.019   0.019
115.14411   21.50355   619.18000   593.41000   850.62   2314.860   1.190   1.200   310.738   0.180   0.410   1464.240   2247.000   0.017   0.017
129.55798   -31.38266   1670.92000   114.27000   838.40   2037.400   1.680   1.420   18.345   -0.080   -0.730   1199.000   1958.000   0.022   0.023
122.03905   38.12921   212.00000   285.83000   836.69   2039.560   1.350   1.690   233.938   -0.000   0.830   1202.860   2004.000   0.013   0.014
126.52441   -39.37615   1891.16000   125.62000   819.37   1980.760   1.990   1.490   300.975   -0.840   0.620   1161.390   1990.000   0.036   0.034
91.77265   1.51210   999.45000   1089.70000   808.58   2589.070   1.140   1.140   235.103   -0.550   -0.300   1780.490   2538.000   0.039   0.039
